File: Data_XRD/baseline_ZnO.csv
20.0192,37.9188
20.242,15.0488
20.4647,10.9973
20.6874,32.2312
20.9102,14.4651
21.1329,-6.29625
21.3556,27.127
21.5784,43.4945
21.8011,33.862
22.0238,27.2295
22.2466,47.0927
22.4693,8.66774
22.692,28.2427
22.9148,68.9715
23.1375,47.8102
23.3602,64.6078
23.583,14.4055
23.8057,11.2109
24.0284,12.0371
24.2512,26.8632
24.4739,23.6893
24.6966,18.5155
24.9194,26.3416
25.1421,0.120178
25.3648,8.31344
25.5876,60.7883
25.8103,41.1913
26.033,6.59436
26.2558,30.2725
26.4785,25.3742
26.7012,9.2208
26.924,40.6657
27.1467,36.0385
27.3694,43.7308
27.5922,105.45
27.8149,88.0815
28.0376,329.713
28.2604,1120.34
28.4831,3455.98
28.7058,1648.61
28.9286,369.238
29.1513,145.869
29.374,57.5005
29.5968,49.776
29.8195,40.9933
30.0422,-2.63693
30.265,16.1524
30.4877,37.6386
30.7104,35.0365
30.9332,28.9165
31.1559,17.2148
31.3786,4.37829
31.6014,37.956
31.8241,26.1885
32.0468,17.6571
32.2696,83.0425
32.4923,77.4278
32.715,190.813
32.9378,753.199
33.1605,711.584
33.3832,218.969
33.606,96.3546
33.8287,30.7399
34.0514,29.8362
34.2742,41.2998
34.4969,22.0368
34.7196,41.6235
34.9424,19.2103
35.1651,26.797
35.3878,30.3541
35.6106,15.8864
35.8333,31.2797
36.056,6.66841
36.2788,12.9966
36.5015,28.1538
36.7242,18.1101
36.947,22.8955
37.1697,15.6809
37.3924,37.4663
37.6152,42.1184
37.8379,26.6594
38.0606,34.2003
38.2834,33.7413
38.5061,45.2823
38.7288,34.6752
38.9516,12.0353
39.1743,35.3954
39.397,-5.24453
39.6198,19.5167
39.8425,31.1248
40.0652,19.7177
40.288,20.3106
40.5107,24.9034
40.7334,20.4963
40.9562,13.0892
41.1789,-0.31796
41.4016,16.2394
41.6244,47.7967
41.8471,21.3541
42.0698,43.9114
42.2926,45.4688
42.5153,45.0261
42.738,47.5835
42.9608,18.1408
43.1835,32.6982
43.4062,34.0724
43.629,30.227
43.8517,27.3815
44.0744,49.5361
44.2972,10.7953
44.5199,19.0937
44.7426,25.2542
44.9654,-1.71094
45.1881,15.1255
45.4108,7.28985
45.6336,14.2341
45.8563,10.3662
46.079,38.2179
46.3018,44.0451
46.5245,49.1518
46.7472,113.461
46.97,252.769
47.1927,735.078
47.4154,1426.39
47.6382,740.696
47.8609,217.005
48.0836,92.3134
48.3064,50.6222
48.5291,36.3885
48.7518,24.6845
48.9746,25.4438
49.1973,26.8463
49.42,29.5856
49.6428,39.5351
49.8655,22.5255
50.0882,23.7536
50.311,42.0477
50.5337,20.1641
50.7564,37.2831
50.9792,56.4292
51.2019,36.5754
51.4246,24.3358
51.6474,8.04755
51.8701,11.7593
52.0928,24.4711
52.3156,16.1829
52.5383,48.8947
52.761,3.60643
52.9838,17.3182
53.2065,0.639641
53.4292,34.5983
53.652,40.9453
53.8747,4.00851
54.0974,13.1525
54.3202,4.14447
54.5429,17.8356
54.7656,31.6237
54.9884,32.1028
55.2111,7.73003
55.4338,45.93
55.6566,87.6473
55.8793,322.365
56.102,753.082
56.3248,917.799
56.5475,456.517
56.7702,92.2338
56.993,55.9511
57.2157,51.6685
57.4384,13.1156
57.6612,1.46392
57.8839,29.252
58.1066,16.2846
58.3294,2.93595
58.5521,31.0599
58.7748,97.1839
58.9976,219.308
59.2203,116.432
59.443,57.5558
59.6658,28.6797
59.8885,17.8037
60.1112,36.9277
60.334,20.0516
60.5567,38.1756
60.7794,26.2605
61.0022,32.1267
61.2249,25.8266
61.4476,10.5243
61.6704,47.264
61.8931,43.0036
62.1158,24.7433
62.3386,17.483
62.5613,35.2227
62.784,47.9624
63.0068,35.6934
63.2295,10.3852
63.4522,17.07
63.675,40.7426
63.8977,38.4151
64.1204,54.0877
64.3432,21.7602
64.5659,39.4327
64.7886,29.1053
65.0114,20.7778
65.2341,61.258
65.4568,39.0685
65.6796,26.6739
65.9023,39.2246
66.125,20.7752
66.3478,8.32588
66.5705,47.8765
66.7932,31.4272
67.016,21.0832
67.2387,33.8652
67.4614,53.8193
67.6842,32.7034
67.9069,27.5876
68.1296,20.4717
68.3524,37.3559
68.5751,29.24
68.7978,48.1242
69.0206,128.008
69.2433,175.892
69.466,151.777
69.6888,64.6607
69.9115,38.5449
70.1342,38.429
70.357,35.3132
70.5797,50.2652
70.8024,36.3982
71.0252,35.4847
71.2479,66.4475
71.4706,28.3755
71.6934,-0.725491
71.9161,56.0924
72.1388,21.9104
72.3616,9.72833
72.5843,37.5463
72.807,40.3642
73.0298,25.9362
73.2525,26.2607
73.4752,12.4871
73.698,29.6093
73.9207,15.7316
74.1434,9.73622
74.3662,15.5351
74.5889,15.3341
74.8116,20.133
75.0344,23.2397
75.2571,39.3772
75.4798,12.7581
75.7026,48.3958
75.9253,86.0537
76.148,102.712
76.3708,232.369
76.5935,286.027
76.8162,207.685
77.039,98.343
77.2617,88.0008
77.4844,49.6587
77.7072,21.3166
77.9299,28.0744
78.1526,31.0987
78.3754,87.123
78.5981,113.147
78.8208,198.172
79.0436,211.196
79.2663,151.22
79.489,61.2447
79.7118,74.269
79.9345,39.2934
80.1572,5.3177
80.38,0.371698
80.6027,4.50313
80.8254,31.8274
81.0482,29.2973
81.2709,28.6842
81.4936,50.5501
81.7164,0.0824824
81.7366,9.98269