File: Data_XRD/baseline_LiF-Pure.csv
20.01,0.155548
20.21,0.372237
20.41,0.0478662
20.61,0.343507
20.81,0.198909
21.01,0.130063
21.21,0.15569
21.41,0.295588
21.61,0.182685
21.81,0.102537
22.01,0.146304
22.21,0.195172
22.41,0.179598
22.61,0.225237
22.81,0.336207
23.01,0.0782132
23.21,0.411509
23.41,0.214972
23.61,0.0368831
23.81,0.063298
24.01,0.0592894
24.21,0.164588
24.41,0.0886562
24.61,0.0549385
24.81,0.0197104
25.01,0.158139
25.21,0.123387
25.41,0.153604
25.61,0.101292
25.81,0.239789
26.01,0.127367
26.21,0.193251
26.41,0.266639
26.61,0.127685
26.81,0.305856
27.01,0.150586
27.21,0.0520767
27.41,0.280955
27.61,0.222054
27.81,0.210034
28.01,0.179321
28.21,0.260581
28.41,0.102491
28.61,0.287181
28.81,0.158482
29.01,0.0839054
29.21,0.115541
29.41,0.280285
29.61,0.030662
29.81,0.142715
30.01,0.251879
30.21,0.181311
30.41,0.15703
30.61,0.193979
30.81,0.221681
31.01,0.043692
31.21,0.181108
31.41,0.25455
31.61,0.226792
31.81,0.0787931
32.01,0.258084
32.21,0.0978605
32.41,0.141897
32.61,-0.0080278
32.81,0.0548272
33.01,0.113558
33.21,0.208695
33.41,0.221264
33.61,0.229354
33.81,0.0231409
34.01,0.126922
34.21,0.0389774
34.41,0.0744134
34.61,0.225854
34.81,0.433193
35.01,0.177892
35.21,0.222257
35.41,0.117323
35.61,0.374228
35.81,0.00402925
36.01,0.230697
36.21,0.0701452
36.41,0.0847699
36.61,0.0827448
36.81,0.0900225
37.01,0.0738468
37.21,0.0882216
37.41,0.308874
37.61,0.11332
37.81,0.152913
38.01,0.0152139
38.21,-0.0600785
38.41,4.3667
38.61,59.8392
38.81,30.8729
39.01,0.234869
39.21,-0.0107428
39.41,0.129242
39.61,0.117006
39.81,0.167699
40.01,0.0157068
40.21,0.178954
40.41,0.386936
40.61,0.1212
40.81,0.0967779
41.01,0.140193
41.21,0.107439
41.41,0.106785
41.61,0.117802
41.81,0.00770225
42.01,0.183875
42.21,0.176347
42.41,0.140788
42.61,-0.00548688
42.81,0.158753
43.01,0.00037319
43.21,0.0236798
43.41,0.298213
43.61,0.207557
43.81,0.0684923
44.01,0.090121
44.21,0.000826506
44.41,-0.00807257
44.61,0.991898
44.81,31.8691
45.01,80.0801
45.21,2.4176
45.41,0.12102
45.61,-0.0802423
45.81,0.0882147
46.01,0.0490316
46.21,0.0580886
46.41,-0.00657638
46.61,0.129676
46.81,0.104822
47.01,0.0989637
47.21,0.100025
47.41,0.040873
47.61,0.0656516
47.81,0.0611106
48.01,0.0509596
48.21,0.069606
48.41,0.0955844
48.61,0.187936
48.81,0.155159
49.01,0.076082
49.21,0.222535
49.41,0.0730862
49.61,0.140039
49.81,0.133062
50.01,0.216085
50.21,0.0967959
50.41,0.0904991
50.61,0.0554453
50.81,0.0460484
51.01,0.128338
51.21,0.077293
51.41,0.0459827
51.61,0.115635
51.81,0.177457
52.01,0.0654791
52.21,0.0811659
52.41,0.137183
52.61,0.155859
52.81,0.0983905
53.01,0.0270125
53.21,0.16436
53.41,0.184401
53.61,0.125283
53.81,0.155025
54.01,0.0805967
54.21,0.0757416
54.41,0.0282949
54.61,0.147384
54.81,0.0841468
55.01,0.112104
55.21,0.0824055
55.41,0.12249
55.61,0.0956831
55.81,0.0860749
56.01,0.0641566
56.21,0.137068
56.41,0.0766801
56.61,0.164162
56.81,0.0600836
57.01,0.0545228
57.21,0.0890284
57.41,0.0546922
57.61,0.0993712
57.81,0.168165
58.01,0.1298
58.21,0.0838337
58.41,0.152151
58.61,0.12083
58.81,0.163848
59.01,-0.000527511
59.21,0.0235615
59.41,0.0881795
59.61,0.00961508
59.81,0.0636366
60.01,0.104652
60.21,0.128875
60.41,0.0627187
60.61,0.220242
60.81,0.123023
61.01,0.0589297
61.21,0.0555815
61.41,0.0976468
61.61,0.0556727
61.81,0.155219
62.01,0.193597
62.21,0.116688
62.41,0.122749
62.61,0.129879
62.81,0.10205
63.01,0.026729
63.21,0.104777
63.41,0.103721
63.61,0.146735
63.81,0.158748
64.01,0.146454
64.21,0.0747364
64.41,0.000430056
64.61,-0.00573187
64.81,-0.0982117
65.01,0.0560007
65.21,1.19464
65.41,22.5166
65.61,13.9747
65.81,0.846985
66.01,-0.025609
66.21,0.0269141
66.41,0.0719586
66.61,0.0175831
66.81,0.128379
67.01,0.0647086
67.21,0.0676429
67.41,0.0618065
67.61,-0.0025516
67.81,0.0572898
68.01,0.0323438
68.21,0.0409904
68.41,0.105221
68.61,0.0577473
68.81,0.0012034
69.01,0.138542
69.21,0.0612366
69.41,0.17676
69.61,0.0300077
69.81,0.0952497
70.01,0.0722298
70.21,0.0587682
70.41,0.0576345
70.61,0.0411807
70.81,0.156186
71.01,0.0425572
71.21,0.122264
71.41,0.156736
71.61,0.0922491
71.81,0.0766818
72.01,0.121235
72.21,0.203935
72.41,0.077933
72.61,0.0790815
72.81,0.0962264
73.01,0.137734
73.21,0.0991409
73.41,0.112068
73.61,0.0499085
73.81,0.0254907
74.01,0.0761358
74.21,0.11247
74.41,0.00441651
74.61,0.111376
74.81,0.109216
75.01,0.151044
75.21,0.0626481
75.41,0.1223
75.61,0.0930816
75.81,0.0242833
76.01,0.0852471
76.21,0.159397
76.41,0.0951128
76.61,0.0726584
76.81,0.143659
77.01,0.00181561
77.21,0.104335
77.41,0.052127
77.61,0.0488107
77.81,0.0110881
78.01,0.0446621
78.21,0.0715607
78.41,0.180592
78.61,3.84536
78.81,3.27239
79.01,2.50711
79.21,0.0951758
79.41,0.0747076
79.61,0.0481301
79.81,0.124932
80.0,0.0123077