File: Data_XRD/baseline_LiF.csv
5.03,13.8867
5.32,0.147142
5.61,10.0235
5.9,0.826914
6.19,5.03594
6.48,11.6497
6.77,30.0968
7.06,6.69506
7.35,36.1509
7.64,29.0898
7.93,55.0621
8.22,31.101
8.51,33.9733
8.8,22.3724
9.09,13.5063
9.38,5.72435
9.67,14.9984
9.96,24.2058
10.25,18.3131
10.54,13.5538
10.83,19.887
11.12,21.6474
11.41,27.9563
11.7,7.79862
11.99,18.3288
12.28,7.61778
12.57,9.0872
12.86,-0.222527
13.15,18.6629
13.44,19.6483
13.73,13.067
14.02,43.9628
14.31,20.9378
14.6,7.57658
14.89,3.93701
15.18,18.7015
15.47,4.23784
15.76,5.28906
16.05,19.8065
16.34,19.4426
16.63,16.7447
16.92,20.8917
17.21,9.77614
17.5,9.26063
17.79,23.5945
18.08,28.3312
18.37,20.3271
18.66,27.515
18.95,22.182
19.24,27.0458
19.53,-0.0514549
19.82,31.4776
20.11,29.7399
20.4,11.9689
20.69,25.4339
20.98,7.99329
21.27,30.7018
21.56,20.9771
21.85,23.0304
22.14,13.9454
22.43,18.1936
22.72,12.2827
23.01,6.99105
23.3,19.3414
23.59,14.6936
23.88,7.84744
24.17,17.1933
24.46,9.69647
24.75,10.9095
25.04,20.4962
25.33,13.865
25.62,14.1005
25.91,16.4026
26.2,22.641
26.49,0.90563
26.78,29.9838
27.07,20.1473
27.36,16.2775
27.65,28.4297
27.94,5.45906
28.23,8.08322
28.52,18.0034
28.81,14.1469
29.1,12.9122
29.39,12.0988
29.68,5.99297
29.97,7.17726
30.26,11.2436
30.55,9.99331
30.84,12.5329
31.13,2.61893
31.42,14.7459
31.71,16.0395
32.0,15.4724
32.29,11.835
32.58,5.88161
32.87,11.614
33.16,0.0532258
33.45,24.2033
33.74,13.7301
34.03,9.58292
34.32,-0.335604
34.61,20.1619
34.9,22.4516
35.19,8.34413
35.48,9.66531
35.77,8.54854
36.06,13.0019
36.35,5.25847
36.64,-1.12508
36.93,7.73263
37.22,10.8863
37.51,17.3835
37.8,7.28249
38.09,-2.79667
38.38,217.099
38.67,7568.13
38.96,56.6619
39.25,1.3734
39.54,-7.80487
39.83,-0.703052
40.12,3.68805
40.41,34.5395
40.7,6.50195
40.99,12.0627
41.28,1.9671
41.57,14.2698
41.86,20.768
42.15,11.8696
42.44,6.96866
42.73,9.48589
43.02,3.27159
43.31,15.2312
43.6,19.8068
43.89,8.59094
44.18,-0.4177
44.47,6.83964
44.76,1487.87
45.05,4199.34
45.34,11.9466
45.63,-1.20416
45.92,3.41973
46.21,5.18457
46.5,6.79207
46.79,11.8532
47.08,6.67895
47.37,3.85143
47.66,8.61723
47.95,13.3274
48.24,12.0695
48.53,17.1341
48.82,12.1976
49.11,11.361
49.4,0.0247878
49.69,2.39188
49.98,14.3257
50.27,10.8138
50.56,21.6067
50.85,7.45184
51.14,17.5134
51.43,4.46635
51.72,6.6798
52.01,5.84565
52.3,12.2279
52.59,13.1769
52.88,9.58959
53.17,12.8747
53.46,5.83342
53.75,21.3255
54.04,8.15095
54.33,0.285822
54.62,14.6454
54.91,17.4359
55.2,7.74757
55.49,0.855958
55.78,14.4128
56.07,11.1029
56.36,4.55971
56.65,7.34985
56.94,9.22203
57.23,11.0706
57.52,5.77346
57.81,15.0119
58.1,7.88369
58.39,17.0615
58.68,11.2622
58.97,11.2742
59.26,13.8077
59.55,4.56242
59.84,-0.00481671
60.13,11.1328
60.42,6.1371
60.71,8.84489
61.0,0.471841
61.29,11.6691
61.58,5.65989
61.87,-0.425203
62.16,7.69947
62.45,11.5076
62.74,9.16777
63.03,0.347658
63.32,6.47263
63.61,13.0976
63.9,12.6341
64.19,13.7236
64.48,1.30136
64.77,2.50604
65.06,15.0472
65.35,1277.45
65.64,1337.21
65.93,11.3633
66.22,4.82456
66.51,7.02539
66.8,11.1368
67.09,-2.30173
67.38,17.5872
67.67,8.82141
67.96,13.369
68.25,5.81294
68.54,14.0818
68.83,1.47116
69.12,8.35031
69.41,15.7791
69.7,3.17285
69.99,4.46183
70.28,5.05724
70.57,8.07003
70.86,5.5403
71.15,8.34478
71.44,5.02618
71.73,8.67424
72.02,7.92231
72.31,7.79733
72.6,6.35948
72.89,2.72164
73.18,13.4352
73.47,18.8341
73.76,5.05395
74.05,11.86
74.34,2.95767
74.63,15.2166
74.92,17.778
75.21,5.59213
75.5,11.8054
75.79,3.68537
76.08,7.77912
76.37,5.7252
76.66,3.17597
76.95,5.82726
77.24,4.3513
77.53,2.21819
77.82,3.21791
78.11,-3.10084
78.4,18.1464
78.69,574.199
78.98,307.684
79.27,3.04575
79.56,2.81844
79.85,3.5564
80.14,2.90975
80.43,10.7272
80.72,2.90583
81.01,3.15568
81.3,5.67696
81.59,12.3206
81.88,3.09639
82.17,-5.64839
82.46,5.83664
82.75,46.5691
83.04,354.434
83.33,59.4324
83.62,-3.24009
83.91,8.40859
84.2,11.263
84.49,3.86852
84.78,8.65153
85.07,11.711
85.36,7.84901
85.65,11.0018
85.94,6.56587
86.23,5.5164
86.52,9.97235
86.81,9.21005
87.1,6.08588
87.39,12.7323
87.68,12.2616
87.97,13.5914
88.26,3.60107
88.55,8.07342
88.84,6.89807
89.13,6.98941
89.42,7.52755
89.71,4.66352
89.99,5.22958