File: Data_XRD/LiF-Pure.csv
20,2.15976
20.21,2.36177
20.42,1.92526
20.63,2.26991
20.84,2.20382
21.05,2.19299
21.26,2.18701
21.47,2.0145
21.68,1.9443
21.89,2.15714
22.1,1.96932
22.31,1.95849
22.52,2.03541
22.73,1.88269
22.94,1.98911
23.15,1.98575
23.36,1.90696
23.57,1.86962
23.78,1.93945
23.99,1.77739
24.2,1.86141
24.41,1.7296
24.62,1.724
24.83,1.65044
25.04,1.79196
25.25,1.88493
25.46,1.70085
25.67,1.60563
25.88,1.63849
26.09,1.75872
26.3,1.65828
26.51,1.54215
26.72,1.5119
26.93,1.56119
27.14,1.44357
27.35,1.50369
27.56,1.39988
27.77,1.33865
27.98,1.39988
28.19,1.52647
28.4,1.34126
28.61,1.52161
28.82,1.42303
29.03,1.29309
29.24,1.25724
29.45,1.43536
29.66,1.2509
29.87,1.28077
30.08,1.32595
30.29,1.28376
30.5,1.23559
30.71,1.20086
30.92,1.26583
31.13,1.16016
31.34,1.2158
31.55,1.30205
31.76,1.25127
31.97,1.22887
32.18,1.24604
32.39,1.2102
32.6,1.11087
32.81,1.13514
33.02,1.17659
33.23,1.36665
33.44,1.3028
33.65,1.09929
33.86,1.27106
34.07,1.11087
34.28,1.1736
34.49,1.13029
34.7,1.30915
34.91,1.28413
35.12,1.19339
35.33,1.18854
35.54,1.19713
35.75,1.14224
35.96,1.06532
36.17,1.07092
36.38,1.20982
36.59,1.1146
36.8,1.08921
37.01,1.09407
37.22,1.20161
37.43,1.50892
37.64,1.41706
37.85,1.32968
38.06,1.54588
38.27,2.03765
38.48,18.86053
38.69,88.11798
38.9,3.69817
39.11,1.65641
39.32,1.28936
39.53,1.1624
39.74,1.22326
39.95,1.24231
40.16,1.15082
40.37,1.4081
40.58,1.17808
40.79,1.01864
41,1.09967
41.21,1.04777
41.42,1.03843
41.63,0.94919
41.84,1.09369
42.05,1.00072
42.26,0.97122
42.47,1.03768
42.68,0.98093
42.89,1.10938
43.1,0.98951
43.31,1.13066
43.52,1.25724
43.73,1.28264
43.94,1.13551
44.15,1.20049
44.36,1.41706
44.57,2.27327
44.78,24.33684
44.99,95.11964
45.2,4.53347
45.41,1.69711
45.62,1.21841
45.83,1.18331
46.04,1.10452
46.25,1.00744
46.46,0.94919
46.67,0.90363
46.88,0.84874
47.09,0.82148
47.3,0.88048
47.51,0.88608
47.72,0.88758
47.93,0.85546
48.14,0.73822
48.35,0.74979
48.56,0.7524
48.77,0.79983
48.98,0.65495
49.19,0.7707
49.4,0.58176
49.61,0.71394
49.82,0.69975
50.03,0.7132
50.24,0.72365
50.45,0.6949
50.66,0.58624
50.87,0.59819
51.08,0.671
51.29,0.70834
51.5,0.65084
51.71,0.53359
51.92,0.57989
52.13,0.58213
52.34,0.58475
52.55,0.6023
52.76,0.60304
52.97,0.52575
53.18,0.57355
53.39,0.61761
53.6,0.5026
53.81,0.57317
54.02,0.49886
54.23,0.62433
54.44,0.51791
54.65,0.53882
54.86,0.49849
55.07,0.50111
55.28,0.50372
55.49,0.4253
55.7,0.4914
55.91,0.53172
56.12,0.54927
56.33,0.46489
56.54,0.49065
56.75,0.47198
56.96,0.40663
57.17,0.48131
57.38,0.47683
57.59,0.47646
57.8,0.52836
58.01,0.49252
58.22,0.49102
58.43,0.48729
58.64,0.33793
58.85,0.54629
59.06,0.39618
59.27,0.55712
59.48,0.35473
59.69,0.41074
59.9,0.48281
60.11,0.44509
60.32,0.4619
60.53,0.43016
60.74,0.45966
60.95,0.45182
61.16,0.41634
61.37,0.36556
61.58,0.39991
61.79,0.48244
62,0.51679
62.21,0.44472
62.42,0.52874
62.63,0.31328
62.84,0.54479
63.05,0.40663
63.26,0.4268
63.47,0.44248
63.68,0.56272
63.89,0.52463
64.1,0.58363
64.31,0.63404
64.52,0.50409
64.73,0.68258
64.94,0.72813
65.15,1.35321
65.36,16.54282
65.57,15.86211
65.78,2.3879
65.99,0.7371
66.2,0.55973
66.41,0.55562
66.62,0.46302
66.83,0.50857
67.04,0.42306
67.25,0.37639
67.46,0.40962
67.67,0.41485
67.88,0.43053
68.09,0.46787
68.3,0.34764
68.51,0.38124
68.72,0.47683
68.93,0.40141
69.14,0.28939
69.35,0.38684
69.56,0.46302
69.77,0.39655
69.98,0.30246
70.19,0.29984
70.4,0.29499
70.61,0.29237
70.82,0.40402
71.03,0.25765
71.24,0.39133
71.45,0.31216
71.66,0.31739
71.87,0.25653
72.08,0.25653
72.29,0.29984
72.5,0.35884
72.71,0.35735
72.92,0.24831
73.13,0.26586
73.34,0.26138
73.55,0.20761
73.76,0.25354
73.97,0.24719
74.18,0.28416
74.39,0.2289
74.6,0.28341
74.81,0.29275
75.02,0.35697
75.23,0.24645
75.44,0.23375
75.65,0.28976
75.86,0.23972
76.07,0.27482
76.28,0.2752
76.49,0.23487
76.7,0.32747
76.91,0.28901
77.12,0.25018
77.33,0.26287
77.54,0.24234
77.75,0.26586
77.96,0.3327
78.17,0.2681
78.38,0.525
78.59,3.46405
78.8,4.06448
79.01,2.80462
79.22,0.3902
79.43,0.23786
79.64,0.19902
79.85,0.23375
80,0.21097