File: Data_XRD/LiF.csv
5.02,394.667
5.31,372.333
5.6,383.3
5.89,376.433
6.18,358.067
6.47,374.367
6.76,390.067
7.05,369.267
7.34,390.633
7.63,382.2
7.92,392.567
8.21,371.667
8.5,364.533
8.79,349.533
9.08,337.4
9.37,318.867
9.66,332.3
9.95,342.367
10.24,328.933
10.53,319.567
10.82,323.8
11.11,322.8
11.4,328.767
11.69,297.467
11.98,301.1
12.27,283.3
12.56,285.433
12.85,276
13.14,290.467
13.43,282.233
13.72,279.833
14.01,284.333
14.3,272.233
14.59,266.967
14.88,255.433
15.17,264.2
15.46,245.433
15.75,248.033
16.04,260.033
16.33,255.967
16.62,243.367
16.91,260.233
17.2,247.367
17.49,237.7
17.78,261.933
18.07,249.9
18.36,235.267
18.65,252.4
18.94,252.767
19.23,251.967
19.52,225.8
19.81,247.633
20.1,237.967
20.39,227.6
20.68,237.8
20.97,219.5
21.26,234.2
21.55,225.2
21.84,223.3
22.13,218.1
22.42,220.3
22.71,216.133
23,204.333
23.29,215.2
23.58,214.567
23.87,204.6
24.16,201.4
24.45,198.467
24.74,191.867
25.03,201.233
25.32,184.833
25.61,180.267
25.9,182.567
26.19,195.2
26.48,176.7
26.77,192.667
27.06,181.567
27.35,173.2
27.64,179.767
27.93,158.367
28.22,165.5
28.51,168.567
28.8,160.867
29.09,159.9
29.38,155.567
29.67,150.367
29.96,142.767
30.25,158.433
30.54,155.667
30.83,149.1
31.12,139.967
31.41,162
31.7,155.9
31.99,144.3
32.28,144.4
32.57,141.8
32.86,143.067
33.15,142.567
33.44,155.267
33.73,148.4
34.02,143.967
34.31,136.267
34.6,154.567
34.89,155.1
35.18,138.833
35.47,137.533
35.76,140.033
36.05,139.1
36.34,126.667
36.63,122.5
36.92,142.2
37.21,142.833
37.5,162.4
37.79,158.133
38.08,178.8
38.37,377.867
38.66,7483.4
38.95,259.333
39.24,177.767
39.53,142.733
39.82,145.367
40.11,140.433
40.4,162.667
40.69,143.133
40.98,135.467
41.27,127.2
41.56,132.7
41.85,138.633
42.14,131.267
42.43,123.533
42.72,128.7
43.01,119.933
43.3,147.867
43.59,153.667
43.88,150.267
44.17,145.467
44.46,186.3
44.75,1416.43
45.04,4699.4
45.33,205.967
45.62,147.733
45.91,132.6
46.2,133.467
46.49,122.5
46.78,119.667
47.07,118.533
47.36,111.567
47.65,115.6
47.94,115.333
48.23,110.867
48.52,112.333
48.81,109.133
49.1,100.5
49.39,88.03333
49.68,92.9
49.97,98.66667
50.26,95.7
50.55,106.267
50.84,92.5
51.13,107.967
51.42,88.06667
51.71,86.6
52,80.66667
52.29,90.1
52.58,92.96667
52.87,86.3
53.16,89.66667
53.45,80.9
53.74,97.66667
54.03,83.9
54.32,79.26667
54.61,89.66667
54.9,88.96667
55.19,85.93333
55.48,78.7
55.77,90.66667
56.06,86.2
56.35,77.7
56.64,80.43333
56.93,86.63333
57.22,80.56667
57.51,71.23333
57.8,86.13333
58.09,80.66667
58.38,90.16667
58.67,81.56667
58.96,80
59.25,78.36667
59.54,75.16667
59.83,72.9
60.12,80.33333
60.41,76.33333
60.7,76.1
60.99,73.7
61.28,77.23333
61.57,75.83333
61.86,71.73333
62.15,75.66667
62.44,83.63333
62.73,78.63333
63.02,70.7
63.31,75.83333
63.6,87.7
63.89,85.8
64.18,92.93333
64.47,81.13333
64.76,93.26667
65.05,119.433
65.34,1258.93
65.63,1416.8
65.92,120.833
66.21,90.96667
66.5,83.96667
66.79,84.16667
67.08,73.83333
67.37,81.86667
67.66,76
67.95,77.06667
68.24,70.03333
68.53,78.26667
68.82,64.6
69.11,71.93333
69.4,78.06667
69.69,62.7
69.98,65.96667
70.27,64.16667
70.56,69.33333
70.85,65.8
71.14,67.93333
71.43,62.5
71.72,66.43333
72.01,68.53333
72.3,65.03333
72.59,63.06667
72.88,62.2
73.17,69.9
73.46,72.16667
73.75,63.36667
74.04,66.3
74.33,59.73333
74.62,68.03333
74.91,71.9
75.2,58.33333
75.49,65.76667
75.78,61.3
76.07,63.5
76.36,61.8
76.65,62.26667
76.94,64.66667
77.23,62.33333
77.52,63.13333
77.81,61.93333
78.1,57.8
78.39,86.33333
78.68,614.167
78.97,373.5
79.26,74.26667
79.55,62.1
79.84,56.66667
80.13,62.4
80.42,64.3
80.71,56.86667
81,57.56667
81.29,57.93333
81.58,65.9
81.87,58.06667
82.16,52.2
82.45,68.33333
82.74,104.8
83.03,478.2
83.32,141.767
83.61,55.7
83.9,63.66667
84.19,65.63333
84.48,56.6
84.77,58.16667
85.06,61.33333
85.35,53.16667
85.64,55.76667
85.93,57
86.22,60
86.51,55.56667
86.8,52.56667
87.09,51.43333
87.38,57.9
87.67,60.26667
87.96,58.53333
88.25,51.36667
88.54,50.4
88.83,51.43333
89.12,51.56667
89.41,53.2
89.7,48.86667
89.99,49.66667