File: Data_XRD/TiO2.csv
10.34,180.6
10.59,197.4
10.84,207.2
11.09,270.2
11.34,196
11.59,208.6
11.84,292.6
12.09,298.2
12.34,236.6
12.59,180.6
12.84,212.8
13.09,179.2
13.34,154
13.59,180.6
13.84,193.2
14.09,198.8
14.34,211.4
14.59,184.8
14.84,182
15.09,142.8
15.34,137.2
15.59,155.4
15.84,130.2
16.09,130.2
16.34,127.4
16.59,138.6
16.84,140
17.09,166.6
17.34,114.8
17.59,113.4
17.84,98
18.09,156.8
18.34,124.6
18.59,110.6
18.84,124.6
19.09,141.4
19.34,137.2
19.59,110.6
19.84,138.6
20.09,140
20.34,124.6
20.59,116.2
20.84,100.8
21.09,96.6
21.34,116.2
21.59,114.8
21.84,95.2
22.09,127.4
22.34,144.2
22.59,98
22.84,114.8
23.09,144.2
23.34,151.2
23.59,169.4
23.84,151.2
24.09,256.2
24.34,338.8
24.59,449.4
24.84,840
25.09,2378.6
25.34,3302.6
25.59,1342.6
25.84,634.2
26.09,348.6
26.34,256.2
26.59,197.4
26.84,183.4
27.09,280
27.34,520.8
27.59,407.4
27.84,197.4
28.09,85.4
28.34,100.8
28.59,112
28.84,112
29.09,84
29.34,112
29.59,100.8
29.84,98
30.09,71.4
30.34,86.8
30.59,116.2
30.84,88.2
31.09,56
31.34,82.6
31.59,68.6
31.84,72.8
32.09,68.6
32.34,70
32.59,98
32.84,82.6
33.09,74.2
33.34,84
33.59,72.8
33.84,96.6
34.09,86.8
34.34,68.6
34.59,84
34.84,70
35.09,95.2
35.34,114.8
35.59,138.6
35.84,242.2
36.09,396.2
36.34,208.6
36.59,242.2
36.84,352.8
37.09,393.4
37.34,492.8
37.59,641.2
37.84,912.8
38.09,604.8
38.34,448
38.59,390.6
38.84,239.4
39.09,170.8
39.34,144.2
39.59,127.4
39.84,84
40.09,99.4
40.34,84
40.59,84
40.84,110.6
41.09,212.8
41.34,182
41.59,85.4
41.84,72.8
42.09,82.6
42.34,57.4
42.59,56
42.84,99.4
43.09,57.4
43.34,56
43.59,86.8
43.84,85.4
44.09,100.8
44.34,70
44.59,72.8
44.84,85.4
45.09,58.8
45.34,68.6
45.59,100.8
45.84,112
46.09,99.4
46.34,86.8
46.59,88.2
46.84,126
47.09,138.6
47.34,320.6
47.59,520.8
47.84,1094.8
48.09,1260
48.34,744.8
48.59,252
48.84,168
49.09,127.4
49.34,128.8
49.59,102.2
49.84,88.2
50.09,100.8
50.34,56
50.59,84
50.84,68.6
51.09,67.2
51.34,95.2
51.59,110.6
51.84,81.2
52.09,84
52.34,116.2
52.59,110.6
52.84,165.2
53.09,180.6
53.34,291.2
53.59,418.6
53.84,837.2
54.09,994
54.34,826
54.59,575.4
54.84,795.2
55.09,841.4
55.34,548.8
55.59,294
55.84,239.4
56.09,142.8
56.34,166.6
56.59,166.6
56.84,113.4
57.09,123.2
57.34,53.2
57.59,96.6
57.84,56
58.09,57.4
58.34,57.4
58.59,54.6
58.84,54.6
59.09,72.8
59.34,56
59.59,58.8
59.84,58.8
60.09,57.4
60.34,68.6
60.59,54.6
60.84,86.8
61.09,130.2
61.34,99.4
61.59,130.2
61.84,196
62.09,306.6
62.34,492.8
62.59,656.6
62.84,532
63.09,376.6
63.34,211.4
63.59,144.2
63.84,123.2
64.09,110.6
64.34,96.6
64.59,96.6
64.84,86.8
65.09,70
65.34,54.6
65.59,60.2
65.84,71.4
66.09,56
66.34,68.6
66.59,71.4
66.84,40.6
67.09,60.2
67.34,85.4
67.59,58.8
67.84,85.4
68.09,110.6
68.34,127.4
68.59,235.2
68.84,368.2
69.09,322
69.34,197.4
69.59,200.2
69.84,282.8
70.09,252
70.34,298.2
70.59,196
70.84,141.4
71.09,140
71.34,85.4
71.59,42
71.84,54.6
72.09,74.2
72.34,86.8
72.59,56
72.84,53.2
73.09,67.2
73.34,68.6
73.59,70
73.84,74.2
74.09,124.6
74.34,151.2
74.59,197.4
74.84,410.2
75.09,365.4
75.34,354.2
75.59,238
75.84,210
76.09,197.4
76.34,172.2
76.59,128.8
76.84,70
77.09,72.8
77.34,57.4
77.59,42
77.84,42
78.09,44.8
78.34,56
78.59,54.6
78.84,56
79.09,57.4
79.34,54.6
79.59,56
79.84,58.8
79.99,68.6