File: Data_XRD/XRD4.csv
6.00925,51317.7
6.25903,36068.5
6.50881,50843.2
6.75859,21932
7.00838,60160.3
7.25816,36579.8
7.50794,71489.8
7.75772,18897
8.0075,51778.6
8.25728,32878
8.50706,39269.8
8.75684,79531.1
9.00663,38333.4
9.25641,38821
9.50619,66502.1
9.75597,54418.2
10.0058,123269
10.2555,193725
10.5053,234831
10.7551,267766
11.0049,214586
11.2547,154593
11.5044,100195
11.7542,52399.7
12.004,40111.7
12.2538,54130.4
12.5036,41244.3
12.7533,74355.8
13.0031,42216.9
13.2529,84385.1
13.5027,44979.1
13.7525,43901.2
14.0023,54967
14.252,24236.1
14.5018,45892.1
14.7516,45239.1
15.0014,62341.9
15.2512,81508.6
15.5009,-4292.6
15.7507,48454.2
16.0005,12767.4
16.2503,61651.6
16.5001,66467.7
16.7498,50539.8
16.9996,46719.6
17.2494,36122.1
17.4992,37377.7
17.749,21281.4
17.9987,30422.3
18.2485,38004.7
18.4983,116789
18.7481,133231
18.9979,200838
19.2477,281885
19.4974,350585
19.7472,434608
19.997,380678
20.2468,345611
20.4966,285690
20.7463,193327
20.9961,106953
21.2459,37147.9
21.4957,51307.7
21.7455,-3290.52
21.9952,65652.3
22.245,59437.7
22.4948,44109.9
22.7446,87003.5
22.9944,66937.5
23.2442,44184.4
23.4939,15808.3
23.7437,29038.4
23.9935,71577.3
24.2433,23375.1
24.4931,12474.2
24.7428,37338
24.9926,19117.3
25.2424,16794.1
25.4922,13379.2
25.742,56040.6
25.9917,16185.5
26.2415,52848
26.4913,43522.5
26.7411,20107
26.9909,35927.9
27.2407,17760.1
27.4904,5863.38
27.7402,66174.2
27.99,59968
28.2398,9249.71
28.4896,106833
28.7393,324122
28.9891,631056
29.2389,595701
29.4887,335598
29.7385,120594
29.9882,34468.3
30.238,34978.1
30.4878,6097.86
30.7376,49774.1
30.9874,69705.6
31.2372,18911.1
31.4869,63742.7
31.7367,16835.9
31.9865,72832.3
32.2363,50190.7
32.4861,29609.5
32.7358,75129.2
32.9856,62627
33.2354,43056.9
33.4852,59966.9
33.735,39197.5
33.9847,86080.9
34.2345,58273.8
34.4843,46034.3
34.7341,33681.6
34.9839,54251.1
35.2337,38341.3
35.4834,48665.7
35.7332,56155.1
35.983,49940.3
36.2328,82816.4
36.4826,15775.1
36.7323,57108.9
36.9821,21229.2
37.2319,36458
37.4817,35158.5
37.7315,38431.2
37.9812,30943.9
38.231,341892
38.4808,540698
38.7306,12669.8
38.9804,27454.9
39.2302,44914
39.4799,31121.4
39.7297,26364.7
39.9795,56853.7
40.2293,65341.5
40.4791,16356.5
40.7288,71528.9
40.9786,77653.9
41.2284,41869.5
41.4782,35951
41.728,58819.7
41.9777,60819.4
42.2275,96570
42.4773,38628.9
42.7271,73716.7
42.9769,25915.8
43.2267,92374.1
43.4764,79569.6
43.7262,83119.2
43.976,48127.4
44.2258,59283.5
44.4756,55361.1
44.7253,60325.1
44.9751,96895.5
45.2249,45830.5
45.4747,51789.7
45.7245,68642.8
45.9742,43991.7
46.224,69071.9
46.4738,33535.8
46.7236,47247.2
46.9734,85158.9
47.2232,392220
47.4729,804596
47.7227,840904
47.9725,495176
48.2223,136930
48.4721,57618.1
48.7218,24390.9
48.9716,19212.2
49.2214,54959.1
49.4712,22859
49.721,36226.4
49.9707,50558.9
50.2205,32537.6
50.4703,42943.7
50.7201,69450.7
50.9699,24209.3
51.2197,34234.6
51.4694,88321.8
51.7192,54509.1
51.969,13748.5
52.2188,37743.2
52.4686,70672
52.7183,40261.5
52.9681,54788.7
53.2179,35049
53.4677,16640.5
53.7175,42717.4
53.9672,3261.13
54.217,54773.9
54.4668,60520.8
54.7166,8993.7
54.9664,20613.3
55.2162,32731
55.4659,59868.8
55.7157,22946.8
55.9655,64239.3
56.2153,69034.5
56.4651,49093.5
56.7148,318922
56.9646,891803
57.2144,36227.6
57.4642,3792.1
57.714,15836.5
57.9637,37487.4
58.2135,49011.6
58.4633,47302.6
58.7131,44233.5
58.9629,14590.8
59.2127,39801.8
59.4624,38705.7
59.7122,33839.5
59.962,33941
60.2118,21364.4
60.4616,85051.8
60.7113,42046.4
60.9611,71432.7
61.2109,63479.3
61.4607,41442.8
61.7105,97494.7
61.9602,69009.4
62.21,49597.7
62.4598,61180.3
62.7096,62043.7
62.9594,70943.5
63.2092,11133.5
63.4589,37260.6
63.7087,48429.2
63.9585,61387.8
64.2083,49238.7
64.4581,56832.1
64.7078,51487.5
64.9576,51420.3
65.2074,89127.3
65.4572,169756
65.707,245318
65.9567,277304
66.2065,271199
66.4563,259767
66.7061,181167
66.9559,118058
67.2057,63056.2
67.4554,19176.4
67.7052,46339.5
67.955,25453.1
68.2048,36997.6
68.4546,35169.3
68.7043,32731.2
68.9541,59966
69.2039,59234.2
69.4537,65535.1
69.7035,61691.9
69.9532,62072.8
70.203,28123.1
70.4528,52184.1
70.7026,44553.8
70.9524,41866.3
71.2022,44688.5
71.4519,31725.2
71.7017,48669.9
71.9515,61310.4
72.2013,35005.3
72.4511,52648.7
72.7008,60458.2
72.9506,28117.1
73.2004,11661.3
73.4502,6326.52
73.7,-4007.26
73.9497,19836.1
74.1995,68573.9
74.4493,72429.4
74.6991,-22708.7
74.9489,71940.8
75.1986,528914
75.4484,927339
75.6982,140700
75.948,51665.5
76.1978,36263.6
76.4476,22179
76.6973,54822.5
76.9471,31831.3
77.1969,35121.7
77.4467,57542.7
77.6965,30864.9
77.9462,35942.9
78.196,70317.3
78.4458,35636.8
78.6956,22214.8
78.9454,24735.8
79.1951,73922.8
79.4449,46108.3
79.6947,55761.8
79.9445,52767.8
80.0,11952.7