File: Data_XRD/XRD_LiF-Pure.csv
20.02,0.0
20.22,0.0
20.42,0.0
20.62,0.0
20.82,0.0
21.02,0.0
21.22,0.0
21.42,0.0
21.62,0.0
21.82,0.0
22.02,0.0
22.22,0.0
22.42,0.0
22.62,0.0
22.82,0.0
23.02,0.0
23.22,0.0
23.42,0.0
23.62,0.0
23.82,0.0
24.02,0.0
24.22,0.0
24.42,0.0
24.62,0.0
24.82,0.0
25.02,0.0
25.22,0.0
25.42,0.0
25.62,0.0
25.82,0.0
26.02,0.0
26.22,0.0
26.42,0.0
26.62,0.0
26.82,0.0
27.02,0.0
27.22,0.0
27.42,0.0
27.62,0.0
27.82,0.0
28.02,0.0
28.22,0.0
28.42,0.0
28.62,0.0
28.82,0.0
29.02,0.0
29.22,0.0
29.42,0.0
29.62,0.0
29.82,0.0
30.02,0.0
30.22,0.0
30.42,0.0
30.62,0.0
30.82,0.0
31.02,0.0
31.22,0.0
31.42,0.0
31.62,0.0
31.82,0.0
32.02,0.0
32.22,0.0
32.42,0.0
32.62,0.0
32.82,0.0
33.02,0.0
33.22,0.0
33.42,0.0
33.62,0.0
33.82,0.0
34.02,0.0
34.22,0.0
34.42,0.0
34.62,0.0
34.82,0.0
35.02,0.0
35.22,1.31315e-288
35.42,5.856e-256
35.62,2.92466e-225
35.82,1.63584e-196
36.02,1.0247e-169
36.22,7.18858e-145
36.42,5.6478e-122
36.62,4.96943e-101
36.82,4.89692e-82
37.02,5.40419e-65
37.22,6.67926e-50
37.42,9.2452e-37
37.62,1.43316e-25
37.82,2.48807e-16
38.02,4.83751e-09
38.22,0.00105335
38.42,2.56868
38.62,70.1521
38.82,21.4566
39.02,0.0734973
39.22,2.8195e-06
39.42,1.21133e-12
39.62,5.82833e-21
39.82,3.14063e-31
40.02,1.8953e-43
40.22,1.28095e-57
40.42,9.69557e-74
40.62,8.21876e-92
40.82,7.80242e-112
41.02,8.29551e-134
41.22,9.8775e-158
41.42,1.31717e-183
41.62,1.9671e-211
41.82,4.99925e-211
42.02,7.66318e-185
42.22,2.22109e-160
42.42,1.21724e-137
42.62,1.26137e-116
42.82,2.4715e-97
43.02,9.15656e-80
43.22,6.41443e-64
43.42,8.49645e-50
43.62,2.12799e-37
43.82,1.00776e-26
44.02,9.02396e-18
44.22,1.52789e-10
44.42,4.89146e-05
44.62,0.296101
44.82,33.8918
45.02,73.3504
45.22,3.00168
45.42,0.00232263
45.62,3.39821e-08
45.82,9.40097e-15
46.02,4.91755e-23
46.22,4.86384e-33
46.42,9.09627e-45
46.62,3.21663e-58
46.82,2.15076e-73
47.02,2.71917e-90
47.22,6.50032e-109
47.42,2.93824e-129
47.62,2.51127e-151
47.82,4.05837e-175
48.02,1.24012e-200
48.22,7.16525e-228
48.42,7.82802e-257
48.62,1.61706e-287
48.82,6.323e-320
49.02,0.0
49.22,0.0
49.42,0.0
49.62,0.0
49.82,0.0
50.02,0.0
50.22,0.0
50.42,0.0
50.62,0.0
50.82,0.0
51.02,0.0
51.22,0.0
51.42,0.0
51.62,0.0
51.82,0.0
52.02,0.0
52.22,0.0
52.42,0.0
52.62,0.0
52.82,0.0
53.02,0.0
53.22,0.0
53.42,0.0
53.62,0.0
53.82,0.0
54.02,0.0
54.22,0.0
54.42,0.0
54.62,0.0
54.82,0.0
55.02,0.0
55.22,0.0
55.42,0.0
55.62,0.0
55.82,0.0
56.02,0.0
56.22,0.0
56.42,0.0
56.62,0.0
56.82,0.0
57.02,0.0
57.22,0.0
57.42,0.0
57.62,0.0
57.82,0.0
58.02,0.0
58.22,0.0
58.42,0.0
58.62,0.0
58.82,0.0
59.02,0.0
59.22,0.0
59.42,0.0
59.62,0.0
59.82,0.0
60.02,0.0
60.22,0.0
60.42,0.0
60.62,0.0
60.82,3.04386e-310
61.02,3.40148e-284
61.22,2.75889e-259
61.42,1.62415e-235
61.62,6.93968e-213
61.82,2.15217e-191
62.02,4.84438e-171
62.22,7.91449e-152
62.42,9.38495e-134
62.62,8.07726e-117
62.82,5.04568e-101
63.02,2.2877e-86
63.22,7.5284e-73
63.42,1.79817e-60
63.62,3.11731e-49
63.82,3.92242e-39
64.02,3.58222e-30
64.22,2.37451e-22
64.42,1.1424e-15
64.62,3.98922e-10
64.82,1.01107e-05
65.02,0.0185993
65.22,2.48334
65.42,24.0658
65.62,16.9273
65.82,0.864168
66.02,0.00320208
66.22,8.61174e-07
66.42,1.68102e-11
66.62,2.38165e-17
66.82,2.4491e-24
67.02,1.82793e-32
67.22,9.9023e-42
67.42,3.89347e-52
67.62,1.11112e-63
67.82,2.30148e-76
68.02,3.46002e-90
68.22,3.77549e-105
68.42,2.99014e-121
68.62,1.71883e-138
68.82,7.17132e-157
69.02,2.17164e-176
69.22,4.77311e-197
69.42,7.61444e-219
69.62,8.81655e-242
69.82,7.40939e-266
70.02,4.5195e-291
70.22,2.00089e-317
70.42,0.0
70.62,0.0
70.82,0.0
71.02,0.0
71.22,0.0
71.42,0.0
71.62,0.0
71.82,0.0
72.02,0.0
72.22,0.0
72.42,0.0
72.62,0.0
72.82,0.0
73.02,3e-323
73.22,4.57535e-301
73.42,1.11895e-279
73.62,4.45957e-259
73.82,2.89647e-239
74.02,3.06578e-220
74.22,5.28821e-202
74.42,1.48652e-184
74.62,6.80968e-168
74.82,5.08369e-152
75.02,6.1848e-137
75.22,1.22622e-122
75.42,3.9619e-109
75.62,2.0861e-96
75.82,1.79004e-84
76.02,2.50313e-73
76.22,5.70428e-63
76.42,2.11842e-53
76.62,1.28209e-44
76.82,1.26451e-36
77.02,2.03244e-29
77.22,5.32365e-23
77.42,2.27246e-17
77.62,1.5808e-12
77.82,1.79207e-08
78.02,3.31075e-05
78.22,0.00996766
78.42,0.489052
78.62,3.91031
78.82,5.09522
79.02,1.08196
79.22,0.0374414
79.42,0.000211149
79.62,1.94053e-07
79.82,2.90634e-11
80.0,2.22624e-15