File: Data_XRD/XRD_LiF.csv
5.04,0.0
5.33,0.0
5.62,0.0
5.91,0.0
6.2,0.0
6.49,0.0
6.78,0.0
7.07,0.0
7.36,0.0
7.65,0.0
7.94,0.0
8.23,0.0
8.52,0.0
8.81,0.0
9.1,0.0
9.39,0.0
9.68,0.0
9.97,0.0
10.26,0.0
10.55,0.0
10.84,0.0
11.13,0.0
11.42,0.0
11.71,0.0
12.0,0.0
12.29,0.0
12.58,0.0
12.87,0.0
13.16,0.0
13.45,0.0
13.74,0.0
14.03,0.0
14.32,0.0
14.61,0.0
14.9,0.0
15.19,0.0
15.48,0.0
15.77,0.0
16.06,0.0
16.35,0.0
16.64,0.0
16.93,0.0
17.22,0.0
17.51,0.0
17.8,0.0
18.09,0.0
18.38,0.0
18.67,0.0
18.96,0.0
19.25,0.0
19.54,0.0
19.83,0.0
20.12,0.0
20.41,0.0
20.7,0.0
20.99,0.0
21.28,0.0
21.57,0.0
21.86,0.0
22.15,0.0
22.44,0.0
22.73,0.0
23.02,0.0
23.31,0.0
23.6,0.0
23.89,0.0
24.18,0.0
24.47,0.0
24.76,0.0
25.05,0.0
25.34,0.0
25.63,0.0
25.92,0.0
26.21,0.0
26.5,0.0
26.79,0.0
27.08,0.0
27.37,0.0
27.66,0.0
27.95,0.0
28.24,0.0
28.53,0.0
28.82,0.0
29.11,0.0
29.4,0.0
29.69,0.0
29.98,0.0
30.27,0.0
30.56,0.0
30.85,0.0
31.14,0.0
31.43,0.0
31.72,0.0
32.01,0.0
32.3,0.0
32.59,0.0
32.88,0.0
33.17,0.0
33.46,0.0
33.75,0.0
34.04,0.0
34.33,0.0
34.62,0.0
34.91,0.0
35.2,4.99054e-290
35.49,4.85076e-243
35.78,3.73176e-200
36.07,2.27226e-161
36.36,1.09508e-126
36.65,4.17709e-96
36.94,1.26108e-69
37.23,3.01339e-47
37.52,5.69912e-29
37.81,8.53104e-15
38.1,0.000101074
38.39,94.7797
38.68,7034.52
38.97,41.3233
39.26,1.92131e-05
39.55,7.07034e-16
39.84,2.05933e-30
40.13,4.74735e-49
40.42,8.66203e-72
40.71,1.25092e-98
41.0,1.42982e-129
41.29,1.29352e-164
41.58,9.26204e-204
41.87,2.28484e-202
42.16,1.38245e-165
42.45,1.99126e-132
42.74,6.82801e-103
43.03,5.57376e-77
43.32,1.08315e-54
43.61,5.01092e-36
43.9,5.51865e-21
44.19,1.44689e-09
44.48,0.0903078
44.77,1341.85
45.06,4746.43
45.35,3.99685
45.64,8.0123e-07
45.93,3.82369e-17
46.22,4.34406e-31
46.51,1.17489e-48
46.8,7.56457e-70
47.09,1.15947e-94
47.38,4.23078e-123
47.67,3.67511e-155
47.96,7.59988e-191
48.25,3.74137e-230
48.54,4.38471e-273
48.83,1.16787e-319
49.12,0.0
49.41,0.0
49.7,0.0
49.99,0.0
50.28,0.0
50.57,0.0
50.86,0.0
51.15,0.0
51.44,0.0
51.73,0.0
52.02,0.0
52.31,0.0
52.6,0.0
52.89,0.0
53.18,0.0
53.47,0.0
53.76,0.0
54.05,0.0
54.34,0.0
54.63,0.0
54.92,0.0
55.21,0.0
55.5,0.0
55.79,0.0
56.08,0.0
56.37,0.0
56.66,0.0
56.95,0.0
57.24,0.0
57.53,0.0
57.82,0.0
58.11,0.0
58.4,0.0
58.69,0.0
58.98,0.0
59.27,0.0
59.56,0.0
59.85,0.0
60.14,0.0
60.43,0.0
60.72,0.0
61.01,1.61579e-283
61.3,1.08967e-247
61.59,2.95866e-214
61.88,3.23437e-183
62.17,1.42357e-154
62.46,2.52267e-128
62.75,1.79985e-104
63.04,5.17016e-83
63.33,5.9795e-64
63.62,2.78433e-47
63.91,5.21997e-33
64.2,3.94012e-21
64.49,1.19741e-11
64.78,0.000146512
65.07,7.21761
65.36,1431.55
65.65,1143.18
65.94,3.6755
66.23,4.75786e-05
66.52,2.4797e-12
66.81,5.20331e-22
67.1,4.39597e-34
67.39,1.49528e-48
67.68,2.04778e-65
67.97,1.12911e-84
68.26,2.5066e-106
68.55,2.2404e-130
68.84,8.0623e-157
69.13,1.16812e-185
69.42,6.81407e-217
69.71,1.60037e-250
70.0,1.51331e-286
70.29,0.0
70.58,0.0
70.87,0.0
71.16,0.0
71.45,0.0
71.74,0.0
72.03,0.0
72.32,0.0
72.61,0.0
72.9,0.0
73.19,2.63313e-302
73.48,2.1835e-271
73.77,3.99704e-242
74.06,1.61522e-214
74.35,1.44089e-188
74.64,2.83751e-164
74.93,1.23353e-141
75.22,1.18377e-120
75.51,2.50781e-101
75.8,1.17281e-83
76.09,1.21078e-67
76.38,2.75937e-53
76.67,1.38823e-40
76.96,1.54177e-29
77.25,3.77994e-20
77.54,2.04577e-12
77.83,2.44419e-06
78.12,0.0644644
78.41,37.5328
78.7,482.401
78.99,136.871
79.28,0.857282
79.57,0.000118534
79.86,3.61797e-10
80.15,2.43779e-17
80.44,3.62604e-26
80.73,1.19063e-36
81.02,3.19339e-33
81.31,1.10842e-23
81.6,1.19977e-15
81.89,4.04974e-09
82.18,0.000426281
82.47,1.39928
82.76,143.235
83.05,457.229
83.34,45.5152
83.63,0.141292
83.92,1.36778e-05
84.21,4.1291e-11
84.5,3.88716e-18
84.79,1.14116e-26
85.08,1.04472e-36
85.37,2.98259e-48
85.66,2.65537e-61
85.95,7.37215e-76
86.24,6.38267e-92
86.53,1.72325e-109
86.82,1.45089e-128
87.11,3.8094e-149
87.4,3.11903e-171
87.69,7.96378e-195
87.98,6.34101e-220
88.27,1.57448e-246
88.56,1.21914e-274
88.85,2.94379e-304
89.14,0.0
89.43,0.0
89.72,0.0
89.99,0.0