File: Data_XRD/XRD_ZnO.csv
20.0395,0.0
20.2622,0.0
20.4849,0.0
20.7077,0.0
20.9304,0.0
21.1531,0.0
21.3759,0.0
21.5986,0.0
21.8213,0.0
22.0441,5.55255e-302
22.2668,2.37567e-281
22.4895,1.9234e-261
22.7123,2.94675e-242
22.935,8.54294e-224
23.1577,4.68665e-206
23.3805,4.86527e-189
23.6032,9.55747e-173
23.8259,3.55278e-157
24.0487,2.49911e-142
24.2714,3.32653e-128
24.4941,8.37893e-115
24.7169,3.99371e-102
24.9396,3.60208e-90
25.1623,6.14783e-79
25.3851,1.98555e-68
25.6078,1.21347e-58
25.8305,1.40336e-49
26.0533,3.07113e-41
26.276,1.2718e-33
26.4987,9.96618e-27
26.7215,1.47785e-20
26.9442,4.14687e-15
27.1669,2.20192e-10
27.3897,2.21245e-06
27.6124,0.00420665
27.8351,1.51352
28.0579,103.046
28.2806,1327.59
28.5033,3236.6
28.7261,1493.15
28.9488,130.349
29.1715,2.15329
29.3943,0.00673114
29.617,3.98166e-06
29.8397,4.45687e-10
30.0625,9.44032e-15
30.2852,3.78385e-20
30.5079,2.86993e-26
30.7307,4.58222e-31
30.9534,6.09699e-25
31.1761,1.95292e-19
31.3989,1.49231e-14
31.6216,2.72046e-10
31.8443,1.18313e-06
32.0671,0.00122752
32.2898,0.303831
32.5125,17.9409
32.7353,252.733
32.958,849.353
33.1807,680.96
33.4035,130.245
33.6262,5.94304
33.8489,0.0646939
34.0717,0.000168006
34.2944,1.04086e-07
34.5171,1.5384e-11
34.7399,5.42441e-16
34.9626,4.56292e-21
35.1853,9.15673e-27
35.4081,4.38374e-33
35.6308,5.00676e-40
35.8535,1.36419e-47
36.0763,8.86752e-56
36.299,1.3751e-64
36.5217,5.08717e-74
36.7445,4.48977e-84
36.9672,9.4532e-95
37.1899,4.74833e-106
37.4127,5.68998e-118
37.6354,1.62662e-130
37.8581,1.10936e-143
38.0809,1.80493e-157
38.3036,7.00583e-172
38.5263,6.48731e-187
38.7491,1.4331e-202
38.9718,7.5526e-219
39.1945,9.49562e-236
39.4173,2.84811e-253
39.64,1.42996e-270
39.8627,3.25388e-255
40.0855,3.07508e-240
40.3082,1.03493e-225
40.5309,1.24042e-211
40.7537,5.29452e-198
40.9764,8.04797e-185
41.1991,4.3566e-172
41.4219,8.39867e-160
41.6446,5.766e-148
41.8673,1.40975e-136
42.0901,1.22746e-125
42.3128,3.80607e-115
42.5355,4.20288e-105
42.7583,1.6528e-95
42.981,2.31469e-86
43.2037,1.15443e-77
43.4265,2.05042e-69
43.6492,1.29695e-61
43.8719,2.92147e-54
44.0947,2.34359e-47
44.3174,6.69521e-41
44.5401,6.81158e-35
44.7629,2.46793e-29
44.9856,3.18435e-24
45.2083,1.46322e-19
45.4311,2.39441e-15
45.6538,1.39537e-11
45.8765,2.89589e-08
46.0993,2.14031e-05
46.322,0.00563343
46.5447,0.528044
46.7675,17.6266
46.9902,209.541
47.2129,887.097
47.4357,1337.44
47.6584,718.091
47.8811,137.305
48.1039,9.34962
48.3266,0.226727
48.5493,0.00195801
48.7721,6.0218e-06
48.9948,6.59539e-09
49.2175,2.5725e-12
49.4403,3.57332e-16
49.663,1.76763e-20
49.8857,3.11394e-25
50.1085,1.95358e-30
50.3312,4.3647e-36
50.5539,3.4728e-42
50.7767,9.84022e-49
50.9994,9.92961e-56
51.2221,3.5683e-63
51.4449,4.56659e-71
51.6676,1.08365e-75
51.8903,2.69575e-68
52.1131,2.87084e-61
52.3358,1.30857e-54
52.5585,2.55297e-48
52.7813,2.13182e-42
53.004,7.6193e-37
53.2267,1.16557e-31
53.4495,7.63166e-27
53.6722,2.13874e-22
53.8949,2.56541e-18
54.1177,1.31708e-14
54.3404,2.8942e-11
54.5631,2.72209e-08
54.7859,1.09581e-05
55.0086,0.0018881
55.2313,0.139243
55.4541,4.39522
55.6768,59.3809
55.8995,343.377
56.1223,849.874
56.345,900.318
56.5677,408.222
56.7905,79.2236
57.0132,6.58069
57.2359,0.233963
57.4587,0.00361087
57.6814,0.00294971
57.9041,0.089738
58.1269,1.45945
58.3496,12.5889
58.5723,57.5935
58.7951,139.749
59.0178,179.849
59.2405,122.76
59.4633,44.442
59.686,8.53331
59.9087,0.869018
60.1315,0.0469383
60.3542,0.00134466
60.5769,2.04308e-05
60.7997,1.64644e-07
61.0224,7.03711e-10
61.2451,1.59525e-12
61.4679,1.91802e-15
61.6906,1.2231e-18
61.9133,4.13676e-22
62.1361,7.4207e-26
62.3588,7.06021e-30
62.5815,3.56268e-34
62.8043,9.53509e-39
63.027,6.40121e-42
63.2497,6.75554e-39
63.4725,5.65544e-36
63.6952,3.67621e-33
63.9179,1.85551e-30
64.1407,7.27196e-28
64.3634,2.21293e-25
64.5861,5.22892e-23
64.8089,9.59363e-21
65.0316,1.36673e-18
65.2543,1.51185e-16
65.4771,1.29856e-14
65.6998,8.66048e-13
65.9225,4.48487e-11
66.1453,1.80337e-09
66.368,5.63053e-08
66.5907,1.36502e-06
66.8135,2.56955e-05
67.0362,0.00037558
67.2589,0.00426261
67.4817,0.0375643
67.7044,0.257042
67.9271,1.36571
68.1499,5.63431
68.3726,18.0489
68.5953,44.894
68.8181,86.7067
69.0408,130.03
69.2635,151.413
69.4863,136.902
69.709,96.1137
69.9317,52.3946
70.1545,22.1777
70.3772,7.28908
70.5999,1.86019
70.8227,0.368611
71.0454,0.0567161
71.2681,0.00677599
71.4909,0.000628588
71.7136,4.5278e-05
71.9363,2.53242e-06
72.1591,1.09979e-07
72.3818,3.70864e-09
72.6045,9.71058e-11
72.8273,1.97426e-12
73.05,3.12098e-14
73.2727,9.16444e-15
73.4955,1.2596e-12
73.7182,1.27588e-10
73.9409,9.12738e-09
74.1637,4.61148e-07
74.3864,1.64548e-05
74.6091,0.000414671
74.8319,0.00738027
75.0546,0.0927683
75.2773,0.823541
75.5001,5.16333
75.7228,22.8629
75.9455,71.4978
76.1683,157.911
76.391,246.314
76.6137,271.346
76.8365,211.115
77.0592,116.013
77.2819,45.1055
77.5047,12.9387
77.7274,5.48941
77.9501,12.4604
78.1729,36.0029
78.3956,80.7999
78.6183,137.507
78.8411,177.312
79.0638,173.234
79.2865,128.237
79.5093,71.925
79.732,30.5654
79.9547,9.84158
80.1775,2.40096
80.4002,0.443801
80.6229,0.0621551
80.8457,0.00659554
81.0684,0.000530284
81.2911,3.23036e-05
81.5139,1.491e-06
81.7366,5.21423e-08