File: Data_XRD/ZnO.csv
19.999,237
20.2217,221
20.4444,205
20.6672,215
20.8899,203
21.1126,196
21.3354,212
21.5581,220
21.7808,187
22.0036,194
22.2263,203
22.449,179
22.6718,221
22.8945,181
23.1172,202
23.34,177
23.5627,182
23.7854,193
24.0082,202
24.2309,197
24.4536,219
24.6764,179
24.8991,193
25.1218,186
25.3446,211
25.5673,213
25.79,217
26.0128,195
26.2355,204
26.4582,191
26.681,214
26.9037,181
27.1264,204
27.3492,239
27.5719,278
27.7946,332
28.0174,530
28.2401,1128
28.4628,3491
28.6856,1979
28.9083,605
29.131,340
29.3538,315
29.5765,238
29.7992,262
30.022,231
30.2447,225
30.4674,202
30.6902,230
30.9129,223
31.1356,213
31.3584,223
31.5811,210
31.8038,194
32.0266,206
32.2493,263
32.472,259
32.6948,402
32.9175,907
33.1402,975
33.363,376
33.5857,266
33.8084,200
34.0312,197
34.2539,213
34.4766,193
34.6994,220
34.9221,204
35.1448,209
35.3676,197
35.5903,208
35.813,199
36.0358,187
36.2585,200
36.4812,174
36.704,214
36.9267,199
37.1494,203
37.3722,204
37.5949,184
37.8176,184
38.0404,186
38.2631,181
38.4858,199
38.7086,183
38.9313,202
39.154,198
39.3768,183
39.5995,187
39.8222,186
40.045,173
40.2677,175
40.4904,177
40.7132,196
40.9359,186
41.1586,192
41.3814,199
41.6041,176
41.8268,176
42.0496,204
42.2723,191
42.495,210
42.7178,201
42.9405,200
43.1632,203
43.386,168
43.6087,201
43.8314,190
44.0542,195
44.2769,205
44.4996,176
44.7224,204
44.9451,179
45.1678,169
45.3906,186
45.6133,184
45.836,196
46.0588,215
46.2815,231
46.5042,252
46.727,295
46.9497,393
47.1724,868
47.3952,1566
47.6179,938
47.8406,430
48.0634,282
48.2861,214
48.5088,219
48.7316,232
48.9543,194
49.177,214
49.3998,194
49.6225,201
49.8452,175
50.068,176
50.2907,173
50.5134,211
50.7362,167
50.9589,194
51.1816,180
51.4044,193
51.6271,187
51.8498,210
52.0726,201
52.2953,200
52.518,179
52.7408,201
52.9635,176
53.1862,188
53.409,205
53.6317,202
53.8544,212
54.0772,191
54.2999,225
54.5226,202
54.7454,200
54.9681,234
55.1908,231
55.4136,223
55.6363,325
55.859,475
56.0818,943
56.3045,1193
56.5272,676
56.75,314
56.9727,290
57.1954,245
57.4182,203
57.6409,272
57.8636,194
58.0864,233
58.3091,203
58.5318,254
58.7546,311
58.9773,375
59.2,317
59.4228,233
59.6455,209
59.8682,210
60.091,191
60.3137,196
60.5364,199
60.7592,171
60.9819,157
61.2046,203
61.4274,172
61.6501,192
61.8728,191
62.0956,190
62.3183,180
62.541,195
62.7638,175
62.9865,189
63.2092,196
63.432,183
63.6547,183
63.8774,183
64.1002,190
64.3229,174
64.5456,180
64.7684,193
64.9911,187
65.2138,172
65.4366,186
65.6593,199
65.882,168
66.1048,172
66.3275,177
66.5502,196
66.773,168
66.9957,177
67.2184,163
67.4412,177
67.6639,183
67.8866,173
68.1094,204
68.3321,197
68.5548,196
68.7776,233
69.0003,256
69.223,364
69.4458,325
69.6685,245
69.8912,192
70.114,210
70.3367,191
70.5594,211
70.7822,207
71.0049,185
71.2276,186
71.4504,183
71.6731,188
71.8958,184
72.1186,174
72.3413,180
72.564,174
72.7868,179
73.0095,195
73.2322,195
73.455,177
73.6777,184
73.9004,194
74.1232,179
74.3459,175
74.5686,186
74.7914,185
75.0141,183
75.2368,185
75.4596,194
75.6823,218
75.905,259
76.1278,296
76.3505,391
76.5732,438
76.796,415
77.0187,253
77.2414,223
77.4642,215
77.6869,222
77.9096,191
78.1324,202
78.3551,242
78.5778,274
78.8006,345
79.0233,358
79.246,289
79.4688,254
79.6915,211
79.9142,183
80.137,192
80.3597,202
80.5824,184
80.8052,173
81.0279,196
81.2506,216
81.4734,195
81.6961,197
81.7366,182